71-Lu-176(n,&gamma;) ENDF/B-VII.1
1.0E-5,73056.0
1.31241E-5,63773.4
1.70876E-5,55892.7
2.2426E-5,48792.5
2.91987E-5,42764.7
3.83206E-5,37333.7
4.98935E-5,32723.7
6.54808E-5,28570.5
8.52562E-5,25045.7
1.11891E-4,21870.2
1.45682E-4,19175.2
1.91195E-4,16748.7
2.48937E-4,14689.7
3.26707E-4,12835.6
4.25373E-4,11263.8
5.58264E-4,9849.6
7.26861E-4,8651.96
9.53941E-4,7575.31
0.00124203,6664.41
0.00163006,5847.98
0.00212234,5159.2
0.00278538,4543.92
0.00362657,4027.76
0.00475955,3572.74
0.00619694,3194.39
0.00813293,2866.2
0.0116243,2522.89
0.0166146,2267.71
0.0234661,2121.44
0.0253,2101.11
0.0302469,2079.53
0.0400981,2141.15
0.0522078,2361.62
0.062416,2676.49
0.0730946,3169.15
0.0819154,3750.29
0.0913911,4624.43
0.100113,5743.79
0.109407,7355.9
0.129445,11630.8
0.135685,12378.8
0.139428,12478.8
0.145667,12005.0
0.153623,10467.2
0.169689,6540.98
0.178112,4924.78
0.18595,3795.42
0.193749,2963.93
0.201548,2349.91
0.210322,1844.04
0.219681,1453.62
0.22904,1168.19
0.238984,943.507
0.249902,760.799
0.262966,601.644
0.277004,478.651
0.292407,381.38
0.309565,303.486
0.327698,243.971
0.348756,194.291
0.372153,155.052
0.39711,125.021
0.422847,102.59
0.454043,83.0407
0.48602,68.7417
0.526575,56.0072
0.566901,47.2732
0.613681,40.3178
0.66771,34.9903
0.737365,31.0072
0.804222,29.2883
0.843218,29.0211
0.906685,29.7149
0.988742,32.7082
1.04451,36.4482
1.10028,42.1498
1.15418,50.3846
1.19657,59.7881
1.23189,70.6856
1.26758,85.9858
1.29881,104.81
1.32557,127.209
1.3516,157.583
1.37316,192.713
1.39398,240.185
1.41257,300.317
1.42893,375.329
1.44213,459.515
1.45384,561.381
1.46518,696.845
1.47559,869.189
1.4847,1075.31
1.49362,1347.67
1.50254,1712.56
1.51184,2213.15
1.52299,2983.72
1.54686,4843.09
1.55608,5309.69
1.56446,5454.76
1.57452,5236.52
1.58641,4525.24
1.61129,2580.45
1.62151,1946.12
1.63043,1519.1
1.63936,1196.08
1.64846,951.083
1.65757,769.535
1.66761,621.628
1.67951,494.681
1.6914,402.731
1.70442,328.663
1.7204,262.625
1.73825,209.983
1.75609,171.755
1.77617,140.062
1.79959,113.066
1.82525,91.5879
1.85499,73.592
1.88919,58.818
1.92488,47.7527
1.96727,38.3329
2.01411,30.9338
2.06318,25.3209
2.12267,20.4427
2.18215,16.9421
2.26023,13.6802
2.3383,11.3922
2.42753,9.53819
2.51676,8.22306
2.63572,7.00962
2.78444,6.0551
2.93726,5.51009
3.12874,5.27849
3.3083,5.47859
3.42801,5.88884
3.54771,6.62006
3.63749,7.48969
3.72727,8.8026
3.80209,10.4454
3.87135,12.7015
3.92821,15.4311
3.97694,18.8303
4.01798,22.9209
4.0539,27.9753
4.08468,34.0376
4.1146,42.3698
4.1394,52.1852
4.16035,63.7659
4.18001,78.9908
4.19647,96.8384
4.21058,117.886
4.22448,146.502
4.23794,185.38
4.2497,232.192
4.26167,296.585
4.27407,385.714
4.28818,518.834
4.30742,748.672
4.33315,1064.65
4.34632,1172.61
4.35938,1211.5
4.37163,1178.16
4.38599,1062.86
4.42883,541.862
4.44294,403.889
4.45598,306.141
4.46795,239.005
4.47971,189.997
4.49168,153.124
4.50536,122.494
4.52032,98.572
4.53699,79.6051
4.55495,64.9951
4.5759,52.7939
4.60027,42.7459
4.62592,35.2136
4.65755,28.6274
4.69347,23.428
4.72938,19.7601
4.77427,16.5418
4.82813,13.9496
4.88906,12.0485
4.96922,10.5588
5.06541,9.72801
5.12954,9.58127
5.22016,9.84115
5.31079,10.6418
5.39674,12.0053
5.47335,13.9037
5.54996,16.7705
5.61198,20.1975
5.6667,24.5228
5.7123,29.5685
5.75717,36.5537
5.79292,44.3734
5.82502,54.0573
5.85567,66.9616
5.88047,81.4942
5.90236,99.0622
5.9206,118.922
5.93921,146.808
5.95453,178.794
5.96985,223.661
5.98244,275.195
5.99447,342.722
6.00615,431.976
6.01764,550.341
6.02913,706.878
6.04226,940.8
6.05777,1295.79
6.0979,2393.76
6.11424,2707.1
6.12947,2812.05
6.14313,2728.78
6.15802,2467.91
6.18545,1732.35
6.20679,1166.58
6.22084,868.022
6.2336,656.992
6.24528,510.222
6.25586,409.065
6.2668,329.68
6.27811,268.206
6.29124,215.798
6.30657,172.276
6.32079,143.105
6.33721,118.218
6.35691,96.4431
6.37807,79.4017
6.4036,64.4406
6.4306,52.9456
6.46124,43.3907
6.49845,35.0265
6.53785,28.6697
6.58382,23.3253
6.63658,18.9505
6.69998,15.2592
6.76801,12.4901
6.84546,10.3021
6.93619,8.48813
7.04241,7.0669
7.14863,6.1234
7.27255,5.40786
7.40532,4.96654
7.54695,4.80448
7.67529,4.98279
7.75938,5.38303
7.82577,6.0149
7.87003,6.72983
7.91429,7.87706
7.94748,9.21486
7.98067,11.1932
8.01165,13.8112
8.0579,19.0466
8.09486,23.2677
8.12407,25.3194
8.14,25.6308
8.16301,24.9693
8.19311,22.4574
8.26337,14.544
8.29601,11.8118
8.3292,9.89445
8.36793,8.47674
8.41218,7.53794
8.46751,6.94184
8.54717,6.67659
8.61798,6.77384
8.73305,7.37975
8.84812,8.50986
8.95655,10.1984
9.0495,12.3902
9.13124,15.2426
9.19297,18.3223
9.25076,22.3749
9.29868,27.0851
9.34661,33.7517
9.38768,41.9791
9.42363,52.3142
9.45272,64.172
9.47669,77.6744
9.49894,94.9319
9.5209,118.924
9.53973,147.951
9.55742,185.809
9.57439,235.711
9.59022,298.086
9.60734,386.671
9.62788,525.224
9.65754,777.634
9.69075,1062.31
9.70946,1172.08
9.72945,1215.62
9.74643,1184.52
9.76651,1075.39
9.80132,780.913
9.83155,524.91
9.85067,395.688
9.86864,301.751
9.88575,234.688
9.90116,189.555
9.91913,150.759
9.93881,120.544
9.95935,98.2625
9.9816,81.0957
10.0073,67.077
10.0381,55.4139
10.074,46.2232
10.11,40.0376
10.1408,36.3495
10.1819,33.088
10.2229,31.2705
10.2686,30.6388
10.3229,31.6774
10.3772,34.9351
10.4214,39.8388
10.4583,46.2689
10.4878,53.7863
10.5182,65.0658
10.5412,77.4364
10.5642,95.2459
10.5838,117.261
10.6018,146.216
10.6168,179.755
10.6329,229.246
10.649,297.054
10.6647,384.7
10.6831,518.936
10.7057,726.766
10.7495,1166.72
10.7701,1307.8
10.7897,1355.31
10.8106,1300.11
10.8335,1133.97
10.8886,586.523
10.9079,432.732
10.9245,330.462
10.939,261.873
10.9538,209.07
10.969,168.767
10.9863,135.954
11.0047,111.646
11.0231,94.7738
11.0462,80.5049
11.0719,70.3855
11.0993,64.0842
11.1323,61.108
11.1378,61.0516
11.1657,62.7999
11.1937,68.6916
11.2162,77.7807
11.2362,91.0912
11.2524,107.23
11.2686,130.36
11.2847,163.092
11.2998,204.912
11.3171,268.949
11.3365,363.8
11.365,540.07
11.4012,768.662
11.4234,857.758
11.4395,878.331
11.4607,843.045
11.4831,739.84
11.5383,388.531
11.5573,290.447
11.5746,221.239
11.5897,175.51
11.6039,143.268
11.619,118.421
11.6341,101.094
11.6506,88.7375
11.668,81.5128
11.6819,79.4095
11.6959,80.4403
11.7133,86.402
11.7306,98.328
11.748,117.258
11.7675,147.903
11.7914,198.239
11.8383,310.742
11.8592,344.732
11.8786,356.007
11.8988,343.747
11.9217,303.846
11.9812,154.999
12.0018,113.553
12.0198,85.7984
12.035,68.0682
12.0502,54.6755
12.0665,44.0962
12.0828,36.405
12.1023,29.822
12.1232,24.8959
12.1492,20.6081
12.1805,17.0749
12.2204,13.9996
12.2691,11.4691
12.3186,9.67536
12.3837,8.01197
12.4597,6.65913
12.5465,5.56807
12.6529,4.62577
12.7695,3.89391
12.9089,3.27467
13.1041,2.6715
13.333,2.19567
13.5754,1.85432
13.8525,1.58655
14.1988,1.3641
14.5451,1.22118
14.9537,1.12304
15.3485,1.09077
15.7225,1.13449
15.9303,1.21692
16.0966,1.34623
16.2178,1.51059
16.313,1.71796
16.4013,2.02314
16.4706,2.39814
16.5312,2.8976
16.5831,3.53708
16.6273,4.31875
16.6697,5.36155
16.7144,6.84397
16.7933,10.2602
16.8418,12.1977
16.8834,13.1054
16.8992,13.1856
16.9388,12.705
16.9887,10.9932
17.0784,7.08967
17.1251,5.49894
17.1658,4.47025
17.2082,3.68897
17.2584,3.04254
17.3017,2.65094
17.3537,2.31478
17.4229,2.01275
17.5095,1.77702
17.6065,1.6218
17.7034,1.53546
17.8697,1.48602
18.0255,1.52139
18.1814,1.63456
18.3207,1.82873
18.4272,2.07842
18.516,2.41023
18.5886,2.83492
18.6467,3.35651
18.6952,4.01485
18.7331,4.78035
18.7642,5.68244
18.7952,6.98478
18.8235,8.70522
18.8477,10.7684
18.8727,13.6604
18.8986,17.6254
18.9309,24.0463
19.0038,40.9411
19.0316,45.3489
19.0599,46.9965
19.0871,45.4909
19.122,39.803
19.1988,22.375
19.2267,17.322
19.2521,13.7794
19.2787,11.0693
19.307,9.08924
19.3312,7.93462
19.3603,7.01466
19.3893,6.45031
19.4281,6.079
19.4474,6.01897
19.4842,6.10125
19.521,6.43798
19.5669,7.28985
19.6004,8.34716
19.6301,9.7807
19.6539,11.4602
19.6776,13.8787
19.7,17.1797
19.7211,21.5923
19.7386,26.5827
19.7591,34.3522
19.7807,45.2234
19.8061,61.842
19.8428,92.0171
19.8871,129.071
19.9167,145.408
19.9396,149.584
19.9642,144.755
19.991,129.842
20.0447,84.7531
20.0782,58.2262
20.1025,43.0129
20.123,33.0968
20.1438,25.5147
20.1646,19.9658
20.1862,15.8398
20.2078,12.9163
20.2294,10.8253
20.2531,9.17241
20.2855,7.61422
20.3244,6.37727
20.3681,5.45926
20.4194,4.75326
20.481,4.21912
20.5501,3.86657
20.6473,3.64274
20.6959,3.61595
20.7977,3.71064
20.8996,4.0067
20.9958,4.51234
21.0807,5.22098
21.1515,6.10113
21.2208,7.3758
21.2746,8.82341
21.3194,10.5321
21.36,12.7175
21.3939,15.3077
21.4222,18.3324
21.4468,21.9773
21.4704,26.8976
21.4916,33.1489
21.51,40.621
21.5298,51.6809
21.5463,64.0837
21.564,81.4876
21.5822,104.724
21.6041,141.142
21.6296,195.357
21.7043,388.787
21.7343,441.926
21.7597,457.292
21.7811,446.071
21.8045,410.678
21.843,317.873
21.8893,196.909
21.9147,142.577
21.9355,107.695
21.9536,83.8856
21.9728,64.7435
21.9893,52.2261
22.0091,41.0449
22.0303,32.5092
22.0515,26.4619
22.0728,22.1012
22.0997,18.1601
22.128,15.2272
22.1619,12.7192
22.2072,10.4088
22.2567,8.6883
22.3162,7.28228
22.3827,6.22212
22.4582,5.4182
22.5525,4.77866
22.628,4.45544
22.7507,4.16305
22.8733,4.07287
23.0419,4.20036
23.2105,4.5995
23.3544,5.20466
23.4984,6.16744
23.621,7.43984
23.7143,8.86792
23.7943,10.6038
23.8652,12.7691
23.9324,15.6978
23.991,19.4061
24.0358,23.4247
24.0731,28.0368
24.1072,33.8511
24.1392,41.5415
24.1659,50.6294
24.1915,63.0154
24.2128,77.4938
24.2341,97.4739
24.2533,121.915
24.2725,154.388
24.2933,200.903
24.3146,263.107
24.3407,361.1
24.377,532.123
24.4282,788.417
24.4576,894.67
24.484,936.984
24.4899,938.335
24.5143,912.044
24.5465,808.135
24.6329,386.518
24.6601,279.88
24.6814,214.305
24.7011,167.03
24.7203,131.706
24.7395,104.979
24.7587,84.9639
24.78,68.5976
24.8013,56.6716
24.8248,47.0931
24.8515,39.2196
24.8834,32.4822
24.9218,26.8083
24.9666,22.2015
25.0189,18.4846
25.0802,15.5077
25.1537,13.1315
25.2377,11.3864
25.3057,10.4594
25.3963,9.68064
25.5323,9.19133
25.5776,9.16828
25.7282,9.51877
25.8788,10.5244
26.0071,12.0045
26.1355,14.2926
26.2516,17.4247
26.3433,21.0244
26.4197,25.2119
26.4912,30.643
26.5596,38.0019
26.6171,46.7905
26.6684,57.9155
26.7124,71.4461
26.7503,87.9483
26.7809,106.553
26.8114,132.778
26.8346,160.547
26.856,194.949
26.8774,241.16
26.8994,305.414
26.9196,383.748
26.9425,501.017
26.9673,667.498
26.9966,922.289
27.0437,1433.65
27.0901,1933.89
27.1236,2170.21
27.1496,2230.63
27.1774,2161.58
27.2077,1946.53
27.2612,1369.35
27.3022,928.582
27.3309,677.852
27.3547,514.892
27.3761,401.525
27.3981,312.723
27.4201,246.614
27.4421,197.837
27.4641,161.822
27.4916,129.372
27.5191,106.319
27.5534,85.9712
27.59,70.59
27.6328,57.8007
27.6817,47.4095
27.7416,38.4827
27.8015,32.1936
27.8785,26.5367
27.9683,22.1083
28.0545,19.2695
28.1523,17.1755
28.2745,15.7648
28.3723,15.4108
28.5025,15.9551
28.5892,17.0627
28.676,18.9724
28.7581,21.8507
28.8357,26.0787
28.9004,31.5088
28.9484,37.557
28.9853,44.3443
29.0149,52.1225
29.0445,63.423
29.0703,77.9102
29.0936,96.4327
29.1169,122.155
29.1383,154.024
29.1605,196.881
29.1863,260.857
29.2225,374.103
29.2927,620.148
29.3317,720.774
29.3672,766.52
29.3855,772.995
29.4269,755.073
29.5094,655.37
29.5764,537.775
29.6964,272.873
29.7351,204.091
29.7703,155.557
29.8031,121.424
29.8376,94.9708
29.8693,77.2455
29.9074,61.7547
29.9484,49.9287
29.9894,41.4085
30.0421,33.5668
30.1037,27.2029
30.1652,22.7117
30.2472,18.5301
30.341,15.321
30.4348,13.1613
30.552,11.4161
30.6926,10.2781
30.8238,9.94887
30.9197,10.1466
31.0156,10.7897
31.1174,12.1518
31.2022,14.125
31.2701,16.6173
31.3295,19.9203
31.3804,24.1632
31.4228,29.3868
31.4584,35.7331
31.4881,43.1578
31.5178,53.4776
31.5433,65.5614
31.5687,81.6445
31.5959,104.376
31.6264,138.152
31.6608,187.225
31.7625,363.303
31.7934,400.171
31.8294,416.61
31.8605,404.51
31.8952,365.555
31.9589,255.685
32.0056,176.551
32.0383,132.023
32.0663,102.275
32.093,80.5521
32.1176,65.3929
32.1456,52.5796
32.1736,43.3006
32.1999,36.908
32.2338,30.9883
32.2762,26.0953
32.3186,23.1756
32.3594,22.0394
32.3627,22.0271
32.3865,22.3695
32.4136,23.8664
32.4378,26.4657
32.4642,30.9978
32.4906,37.5214
32.5265,49.467
32.5975,76.8702
32.6299,85.5898
32.6625,88.6661
32.6936,85.6043
32.733,74.9199
32.8048,50.0263
32.836,42.3899
32.8591,39.0778
32.8822,37.9756
32.9053,39.2521
32.9284,43.1687
32.9515,50.1789
32.972,59.5706
32.9934,73.2511
33.0148,91.76
33.0394,120.123
33.0658,160.123
33.0987,223.427
33.1848,416.064
33.2175,465.598
33.2495,483.007
33.2774,469.679
33.3077,427.833
33.3558,324.83
33.4098,202.892
33.4398,147.976
33.4662,109.891
33.4884,85.2464
33.5109,66.184
33.5333,51.9581
33.5568,41.0628
33.5782,33.8086
33.605,27.2576
33.6338,22.311
33.6638,18.6822
33.7012,15.4771
33.7461,12.8041
33.8049,10.4183
33.8637,8.77225
33.9342,7.3774
34.0144,6.26416
34.1267,5.20958
34.2443,4.48084
34.4047,3.84539
34.565,3.45928
34.8009,3.16822
34.9832,3.10289
35.1901,3.17745
35.3969,3.42406
35.5886,3.85928
35.7501,4.46158
35.8846,5.22475
36.0102,6.2842
36.1149,7.58352
36.2046,9.18798
36.2799,11.0987
36.3445,13.3903
36.4019,16.2343
36.4521,19.7208
36.494,23.774
36.5347,29.3593
36.5646,35.1401
36.5945,43.18
36.6208,53.0833
36.6447,65.443
36.6686,82.2665
36.6901,102.484
36.7153,133.895
36.7404,175.653
36.7673,233.687
36.7978,316.775
36.8516,497.223
36.9066,675.668
36.9413,746.929
36.9699,766.277
37.0044,737.238
37.0394,657.078
37.1422,315.523
37.1727,233.025
37.1996,175.43
37.2247,133.984
37.2499,102.798
37.2714,82.7198
37.2953,66.0137
37.3192,53.7504
37.3455,43.9453
37.3754,36.0211
37.4113,29.4356
37.4484,24.7235
37.4962,20.5496
37.5536,17.2662
37.6031,15.4081
37.6655,13.9704
37.7279,13.3604
37.7487,13.3366
37.7969,13.6743
37.8457,14.7429
37.8848,16.4133
37.921,19.0371
37.9485,22.1437
37.9761,26.707
38.0002,32.3906
38.0243,40.204
38.0485,50.7372
38.0726,64.5602
38.1001,84.9149
38.1346,117.251
38.2265,219.427
38.2591,245.675
38.295,258.169
38.2992,258.323
38.3349,248.398
38.3758,215.876
38.4729,107.804
38.5042,79.4762
38.5326,59.2502
38.559,44.946
38.5831,35.1354
38.6064,28.052
38.6316,22.3953
38.6538,18.7478
38.679,15.6517
38.7123,12.7676
38.7525,10.4224
38.7927,8.81282
38.8456,7.34148
38.9087,6.13864
38.9846,5.15375
39.081,4.3132
39.1959,3.65523
39.3107,3.21473
39.4715,2.81317
39.6783,2.51609
39.885,2.37314
40.0458,2.33958
40.3184,2.42341
40.5,2.58956
40.6817,2.87711
40.8645,3.35275
41.0025,3.91047
41.1174,4.5897
41.217,5.43358
41.309,6.554
41.3856,7.89591
41.4527,9.57273
41.5102,11.6339
41.5542,13.8737
41.5925,16.6191
41.6232,19.7126
41.6538,24.1366
41.6788,29.2911
41.7017,35.944
41.7247,45.2343
41.7448,56.3579
41.765,71.1973
41.7841,89.7156
41.8033,113.468
41.827,151.548
41.8516,202.213
41.8826,283.638
41.9259,424.039
41.9834,618.209
42.0171,702.859
42.0526,744.439
42.0602,745.795
42.0907,724.119
42.1305,638.324
42.2292,322.164
42.2587,246.814
42.2845,197.001
42.3068,166.38
42.3291,146.648
42.3531,136.151
42.3692,134.42
42.3921,137.813
42.4355,156.734
42.501,189.985
42.5418,198.114
42.5811,190.868
42.6164,172.42
42.6793,123.251
42.7314,82.2489
42.7657,60.3562
42.7958,45.4437
42.8215,35.6514
42.8464,28.4396
42.8739,22.5522
42.9014,18.3141
42.9323,14.9474
42.962,12.6604
42.9987,10.6733
43.0444,8.97124
43.0994,7.58312
43.1681,6.40581
43.2539,5.42233
43.3397,4.75633
43.4632,4.12929
43.6119,3.69256
43.7902,3.46152
43.8642,3.43921
44.0551,3.57465
44.2143,3.94978
44.3416,4.52401
44.4425,5.28651
44.5255,6.28357
44.5808,7.27677
44.6295,8.52944
44.6731,10.1558
44.7081,12.0216
44.7401,14.4265
44.7692,17.4682
44.7983,21.6685
44.8274,27.4454
44.8554,34.9312
44.8834,44.707
44.9176,60.1195
44.959,83.7563
45.0485,140.99
45.0858,158.084
45.1256,165.845
45.13,165.926
45.1649,161.018
45.21,141.969
45.3221,72.3307
45.3606,53.1249
45.3912,41.3996
45.4217,32.5861
45.4523,26.2347
45.4817,21.9466
45.5148,18.7269
45.5432,16.9456
45.581,15.5639
45.6306,14.9746
45.6657,15.2235
45.7126,16.413
45.7478,18.106
45.7829,20.7991
45.8131,24.3084
45.8401,28.8412
45.8671,35.2739
45.894,44.3608
45.9188,55.818
45.9457,72.7031
45.9727,95.1559
46.0017,126.297
46.0357,172.39
46.1458,351.191
46.1858,393.732
46.2195,405.918
46.2488,396.725
46.2807,367.356
46.3279,297.886
46.4032,172.749
46.4381,125.44
46.4667,94.5526
46.4943,71.5643
46.5179,56.4696
46.5426,44.4454
46.5679,35.3322
46.5932,28.6604
46.6196,23.5931
46.6471,19.7694
46.6786,16.6357
46.7179,13.9071
46.7643,11.7161
46.8174,10.0031
46.8933,8.39641
46.9843,7.20823
47.0875,6.42116
47.1907,6.00835
47.2956,5.87727
47.3766,5.99102
47.4577,6.43716
47.5118,7.09737
47.5658,8.23822
47.6266,10.215
47.7358,14.4887
47.791,15.7035
47.8162,15.8375
47.8676,15.3198
47.9937,12.3611
48.0421,11.7742
48.0635,11.6941
48.1288,12.0826
48.1963,13.3252
48.2751,15.7284
48.3429,18.7767
48.4088,23.0527
48.4597,27.7714
48.5049,33.6886
48.5426,40.6422
48.5765,49.4298
48.6079,60.8934
48.6362,75.3047
48.6626,93.7567
48.689,118.812
48.7154,152.535
48.7436,200.817
48.7738,268.923
48.8077,368.229
48.8492,520.291
48.9396,886.067
48.9753,988.026
49.0145,1036.7
49.0195,1037.38
49.0582,999.956
49.1029,875.139
49.216,423.821
49.2524,306.663
49.28,236.264
49.3064,183.384
49.3328,142.793
49.3604,111.12
49.3887,87.6502
49.417,70.8603
49.4469,58.2474
49.4808,48.3775
49.5196,40.8443
49.5583,35.9188
49.5971,32.8057
49.6477,30.9151
49.6604,30.8199
49.6984,31.5777
49.7321,33.8892
49.7657,38.3758
49.7952,44.7993
49.8246,54.3761
49.8527,67.2845
49.8823,85.6097
49.9177,114.6
49.9635,162.791
50.0465,259.033
50.0836,290.13
50.1226,304.658
50.1293,304.961
50.1671,294.373
50.2112,259.09
50.3255,126.58
50.3626,91.8244
50.391,70.8724
50.42,54.3382
50.4461,43.0978
50.4722,34.6725
50.4989,28.3312
50.5274,23.4557
50.5558,19.9659
50.5964,16.5712
50.6427,14.0941
50.6928,12.3651
50.7529,11.0361
50.8181,10.1629
50.9082,9.64817
50.9195,9.63875
50.9848,9.89071
51.0322,10.52
51.0795,11.7076
51.1302,13.7807
51.1922,17.4496
51.2824,23.4042
51.3374,25.7036
51.377,26.2158
51.4357,25.4334
51.5269,23.4851
51.5371,23.4329
51.5754,23.8248
51.6115,25.2512
51.6531,28.5337
51.6924,33.7489
51.7238,39.926
51.7553,48.5125
51.788,60.8654
51.8208,77.6964
51.8541,100.392
51.8899,132.06
51.9361,183.731
52.0404,317.459
52.0783,352.751
52.1225,371.508
52.1294,371.875
52.1705,359.506
52.2124,324.142
52.293,222.3
52.3511,150.825
52.3923,110.493
52.426,84.9408
52.4598,65.5049
52.4935,51.1344
52.5272,40.675
52.5647,32.3834
52.6022,26.5187
52.6471,21.5788
52.6921,18.1026
52.7483,15.029
52.8158,12.4794
52.887,10.608
52.9807,8.92274
53.0743,7.78602
53.2139,6.70456
53.3432,6.10841
53.5372,5.6667
53.6664,5.58788
53.8772,5.75598
54.088,6.28181
54.2865,7.16467
54.4603,8.36615
54.6051,9.81645
54.7469,11.8341
54.8749,14.4415
54.9847,17.6078
55.0842,21.65
55.1713,26.6343
55.2452,32.5521
55.3067,39.3353
55.3653,48.2945
55.4179,59.749
55.4619,73.3593
55.4999,90.0274
55.535,111.728
55.5643,136.712
55.5921,168.677
55.6177,207.628
55.6434,258.327
55.6719,332.083
55.7041,441.649
55.7381,591.949
55.7809,831.687
55.8936,1569.16
55.9402,1773.01
55.9795,1832.13
56.0128,1789.95
56.0491,1655.19
56.1088,1297.14
56.1849,792.391
56.2252,573.409
56.2581,431.561
56.2903,324.56
56.321,247.875
56.3496,194.776
56.3792,153.941
56.4089,124.002
56.4418,99.8711
56.4776,81.0945
56.5142,67.2741
56.5582,55.268
56.6094,45.2374
56.6709,36.6726
56.7323,30.4758
56.8114,24.6962
56.9036,19.9201
57.0046,16.2085
57.1217,13.1558
57.2597,10.6453
57.412,8.73791
57.5787,7.32015
57.7649,6.32027
57.9244,5.91825
57.9471,5.90691
58.0353,6.06128
58.0964,6.51567
58.1372,7.14347
58.1779,8.2193
58.2147,9.7673
58.2515,12.066
58.2882,15.2897
58.3295,20.1004
58.4003,30.528
58.4631,39.4261
58.5056,43.2366
58.5391,44.2212
58.5835,42.5127
58.6305,37.4792
58.7505,19.6619
58.7889,15.0972
58.8229,11.9749
58.8568,9.65549
58.8897,8.05705
58.9293,6.7717
58.9632,6.07025
58.9972,5.61995
59.0424,5.27821
59.1065,5.12025
59.1607,5.22355
59.2148,5.59414
59.2667,6.34729
59.3062,7.32666
59.3457,8.79568
59.3846,10.8266
59.436,14.4199
59.5499,23.7887
59.6029,26.475
59.6344,26.9585
59.6796,26.0879
59.7338,23.0995
59.8331,16.0651
59.8838,13.4684
59.9188,12.3591
59.9549,11.7888
59.973,11.7063
60.0271,12.187
60.0824,13.7509
60.1289,16.0482
60.1662,18.8101
60.2014,22.5749
60.2305,26.9552
60.2597,32.9972
60.2889,41.369
60.3156,51.8183
60.3447,67.1898
60.3739,87.7715
60.403,114.586
60.4358,153.073
60.4771,214.004
60.5901,409.709
60.6324,461.671
60.6732,483.205
60.6799,483.617
60.715,471.153
60.7626,419.283
60.8355,295.315
60.895,193.801
60.9351,138.521
60.9679,103.167
60.9958,79.7585
61.025,61.0659
61.0523,47.9277
61.0796,38.1297
61.11,30.1975
61.1404,24.5136
61.1762,19.783
61.2145,16.2754
61.257,13.5437
61.3044,11.3846
61.37,9.30535
61.4465,7.65754
61.5303,6.41419
61.6396,5.31343
61.749,4.57102
61.9008,3.89567
62.0526,3.47677
62.2349,3.19002
62.4205,3.07066
62.4824,3.06426
62.6921,3.16904
62.8493,3.39984
63.0066,3.82318
63.1376,4.41704
63.2425,5.16849
63.3333,6.1798
63.3945,7.19989
63.4434,8.36569
63.4923,10.0749
63.5331,12.2134
63.5657,14.6898
63.5983,18.2066
63.6269,22.5027
63.6525,27.6709
63.6787,34.6002
63.7049,43.5682
63.7349,56.7885
63.769,76.0895
63.8092,104.756
63.9338,209.908
63.9743,233.316
64.02,243.27
64.0647,233.93
64.1132,205.407
64.2367,102.806
64.278,75.2425
64.3127,57.5041
64.345,45.2287
64.3756,36.9577
64.4061,31.4134
64.4324,28.4719
64.4586,26.9625
64.4785,26.6894
64.5122,27.9069
64.5458,31.4049
64.5738,36.3953
64.6019,43.7116
64.6299,53.8629
64.661,69.0631
64.6942,90.58
64.7345,124.391
64.7915,184.026
64.8674,266.27
64.9182,303.511
64.9596,313.711
65.0022,302.592
65.0478,269.348
65.1368,172.667
65.1902,117.554
65.2258,87.8226
65.259,65.8968
65.2875,51.3303
65.3155,40.3371
65.3429,32.1881
65.3737,25.4806
65.4046,20.7365
65.4394,17.0718
65.4767,14.531
65.514,12.9834
65.5606,12.0457
65.5967,11.9037
65.6598,12.5553
65.7724,14.6941
65.8229,15.0403
65.8792,14.4779
65.9436,12.7196
66.0664,8.47464
66.1273,6.98176
66.1757,6.21339
66.214,5.82557
66.2906,5.45036
66.3582,5.38543
66.4702,5.56301
66.6036,6.09774
66.737,7.01905
66.8618,8.39408
66.9582,10.0007
67.0386,11.9334
67.1151,14.609
67.1697,17.3537
67.2211,21.0175
67.2674,25.8259
67.306,31.6517
67.3369,38.1706
67.369,47.5531
67.3979,59.1643
67.4269,74.8412
67.4551,95.2633
67.486,124.723
67.5169,163.105
67.5538,222.229
67.5959,306.911
67.7123,580.88
67.7642,666.249
67.8095,692.373
67.8491,672.568
67.8949,605.141
67.9656,444.65
68.035,282.545
68.0761,204.5
68.1121,150.878
68.1443,114.145
68.1751,87.4819
68.206,67.6976
68.2369,53.2573
68.2677,42.7995
68.2986,35.2167
68.3371,28.5176
68.3757,23.8557
68.4271,19.585
68.4889,16.1806
68.5506,13.8613
68.6329,11.7604
68.7357,10.0902
68.8386,9.07428
68.9671,8.4009
69.0957,8.20771
69.2552,8.52933
69.4146,9.51303
69.5209,10.6478
69.639,12.5692
69.7401,15.0714
69.8251,18.1725
69.8939,21.7878
69.9512,26.0524
70.0065,31.9923
70.047,38.2293
70.0874,47.0853
70.1239,58.5405
70.1576,73.5746
70.1879,92.2725
70.2169,116.29
70.2439,145.505
70.2763,191.303
70.309,251.517
70.3461,338.363
70.3936,477.02
70.5056,841.351
70.552,944.839
70.6,983.973
70.641,954.85
70.689,855.428
70.7679,605.281
70.8323,400.433
70.8731,294.952
70.9075,224.659
70.9399,173.574
70.9717,135.912
71.0008,110.601
71.0298,92.2928
71.0637,77.9337
71.0928,70.4124
71.1218,66.5785
71.1458,65.9528
71.1698,67.6091
71.2054,74.553
71.2338,84.4945
71.2622,98.9847
71.2941,121.383
71.3308,156.228
71.3738,209.208
71.511,415.395
71.5604,462.736
71.5993,474.68
71.6396,460.801
71.6865,414.34
71.7632,297.483
71.8299,193.829
71.8726,140.003
71.906,106.649
71.9393,80.7394
71.9715,61.9428
71.9993,49.6917
72.0302,39.519
72.0636,31.5984
72.0982,25.7812
72.1328,21.6349
72.176,17.983
72.2304,14.8629
72.2923,12.453
72.3664,10.4516
72.4653,8.63042
72.5766,7.24316
72.7187,6.05489
72.8732,5.20272
73.0587,4.54431
73.2876,4.07697
73.4981,3.88151
73.6034,3.85536
73.8122,3.94412
74.021,4.24693
74.2116,4.78545
74.3659,5.50426
74.4944,6.41157
74.6198,7.73618
74.7162,9.23851
74.7965,11.0177
74.8724,13.4232
74.927,15.8767
74.9817,19.354
75.0266,23.5015
75.0652,28.5751
75.0999,35.0068
75.1333,43.6822
75.1655,55.3005
75.1944,69.4965
75.2233,88.2982
75.2523,112.818
75.2838,147.272
75.321,199.895
75.3635,275.869
75.4406,446.019
75.51,593.534
75.5542,656.505
75.5995,679.902
75.6391,662.151
75.6848,601.324
75.7556,453.51
75.8314,285.242
75.8764,203.473
75.9111,153.437
75.9448,115.495
75.9767,88.2757
76.0056,69.5363
76.0371,54.3049
76.0692,43.0065
76.1014,34.8401
76.1322,29.1029
76.1682,24.2147
76.2132,19.9088
76.2582,16.8702
76.3122,14.2505
76.3797,11.939
76.4607,10.0194
76.5513,8.54743
76.6542,7.4215
76.7827,6.54013
76.9263,6.02721
77.0485,5.8977
77.1865,6.07877
77.3246,6.68307
77.4166,7.42514
77.5086,8.60038
77.5853,10.1292
77.6466,11.9848
77.6988,14.3479
77.7448,17.4794
77.7816,21.149
77.8166,26.1233
77.8497,32.7899
77.8792,40.9306
77.9086,51.827
77.9368,65.5234
77.9663,83.916
78.0006,111.491
78.0387,150.327
78.089,214.209
78.2018,372.787
78.2519,420.446
78.2999,436.686
78.3471,420.624
78.3982,371.982
78.5393,176.297
78.5834,126.45
78.619,94.795
78.6534,71.1872
78.684,55.1775
78.7135,43.5389
78.7429,34.8198
78.7761,27.6777
78.8073,22.8411
78.846,18.6493
78.8902,15.4525
78.9343,13.3271
78.9936,11.5069
79.046,10.5541
79.0983,10.0883
79.1245,10.0408
79.1768,10.4024
79.2204,11.3434
79.2531,12.6067
79.2913,14.9315
79.324,17.893
79.3581,22.2
79.3925,28.0412
79.4338,37.2509
79.4866,52.352
79.5899,86.055
79.6403,98.4143
79.6908,103.896
79.6996,104.007
79.7408,101.111
79.7872,91.8001
79.8641,67.7274
79.9386,43.4699
79.9845,31.4089
80.0212,23.872
80.0556,18.4498
80.0901,14.4083
80.121,11.7332
80.1555,9.5857
80.1899,8.07893
80.23,6.8805
80.2759,5.98708
80.3344,5.27817
80.405,4.76683
80.5226,4.31456
80.6637,4.09484
80.7325,4.06508
80.9069,4.15448
81.0812,4.45567
81.2647,5.03053
81.4176,5.78807
81.5705,6.94081
81.6882,8.2628
81.789,9.89283
81.8757,11.8952
81.9483,14.2781
82.0089,17.0869
82.0613,20.5405
82.1084,24.9913
82.1507,30.7923
82.1837,37.1233
82.2173,45.9891
82.2509,58.2552
82.2811,73.2169
82.3127,93.9874
82.345,121.926
82.3813,163.021
82.4217,222.035
82.4687,308.304
82.5924,570.61
82.6473,652.869
82.6989,681.25
82.6999,681.256
82.7516,653.36
82.8076,569.594
82.9447,281.689
82.9904,203.063
83.0281,151.891
83.0604,117.569
83.0926,91.0516
83.1249,71.0617
83.1572,56.2624
83.1895,45.4257
83.2217,37.5171
83.2621,30.5268
83.3044,25.5007
83.3589,21.188
83.4194,18.0737
83.4879,15.7885
83.5724,14.0805
83.6683,13.227
83.691,13.193
83.7667,13.6867
83.8244,14.9256
83.8821,17.2231
83.9421,20.9578
84.0281,28.3699
84.1186,36.2385
84.1828,39.4839
84.2163,39.9558
84.2769,38.6971
84.4308,30.2158
84.4885,28.3563
84.5189,28.061
84.5751,28.8631
84.6425,32.1891
84.6972,36.9914
84.7462,43.3663
84.7952,52.5932
84.8393,64.6295
84.874,77.8121
84.9112,97.2345
84.9447,121.146
84.9807,155.952
85.0154,201.084
85.0502,260.114
85.0878,342.163
85.1325,465.414
85.1999,696.477
85.2908,1021.49
85.3497,1165.41
85.3996,1207.42
85.4423,1176.36
85.4893,1077.15
85.5588,847.485
85.6473,527.868
85.6981,376.275
85.7391,280.216
85.7746,215.283
85.8094,166.527
85.8441,129.789
85.8788,102.527
85.9161,81.2253
85.9491,67.3124
85.9921,54.1602
86.0418,43.5961
86.0914,36.1485
86.1526,29.5956
86.222,24.3171
86.3031,19.9274
86.3924,16.4607
86.5082,13.2901
86.6405,10.7943
86.7894,8.86789
86.963,7.35016
87.1271,6.38067
87.3127,5.65088
87.5447,5.13754
87.7564,4.98856
87.9325,5.10526
88.1086,5.50156
88.2749,6.25907
88.3972,7.20422
88.495,8.35555
88.5806,9.83987
88.6506,11.6054
88.706,13.5993
88.7615,16.4923
88.8039,19.713
88.8449,24.1897
88.8815,29.8781
88.9134,36.7689
88.9473,46.7874
88.98,59.9114
89.0126,77.4212
89.0452,100.285
89.0817,133.267
89.1254,183.762
89.1815,264.66
89.2904,436.092
89.3426,494.472
89.3943,518.294
89.3995,518.508
89.4501,499.585
89.507,438.7
89.6544,210.415
89.702,150.282
89.7392,113.161
89.7757,84.8422
89.807,66.2508
89.8409,51.0244
89.8722,40.5921
89.9074,32.0147
89.9427,25.8865
89.9792,21.3443
90.0157,18.0677
90.0679,14.8036
90.1272,12.32
90.1977,10.3371
90.2857,8.69038
90.3914,7.41475
90.5023,6.57047
90.6132,6.05573
90.7795,5.71469
90.8349,5.69549
90.9965,5.89218
91.158,6.51008
91.2998,7.53099
91.4179,8.91678
91.5124,10.5966
91.5967,12.8141
91.6575,15.109
91.7182,18.4037
91.7682,22.3776
91.8107,27.2563
91.8485,33.4007
91.8816,40.8312
91.9154,51.1953
91.9491,65.3746
91.9828,84.5787
92.0166,110.138
92.049,141.858
92.0882,190.865
92.1327,261.454
92.2002,393.187
92.292,577.399
92.3471,653.251
92.3999,679.156
92.4518,653.544
92.508,576.115
92.6592,274.871
92.7078,195.896
92.7456,147.337
92.778,114.446
92.8138,86.433
92.8475,66.6785
92.8779,53.3198
92.9117,42.2631
92.9467,33.9126
92.9832,27.6609
93.0237,22.6933
93.0683,18.8117
93.1155,15.8514
93.183,12.8759
93.2505,10.7877
93.3315,8.98341
93.4327,7.39144
93.534,6.26299
93.669,5.21109
93.831,4.38018
94.0153,3.79872
94.1632,3.53171
94.3604,3.41183
94.5272,3.54639
94.6524,3.85334
94.7656,4.38924
94.8371,4.95047
94.8908,5.57082
94.9444,6.48261
94.9903,7.65041
95.0308,9.16861
95.0663,11.0727
95.1018,13.7617
95.1322,16.9285
95.1637,21.3361
95.1959,27.313
95.2317,36.122
95.2663,47.182
95.3092,64.7339
95.3616,91.709
95.4856,164.483
95.5356,186.156
95.5905,196.897
95.5996,197.127
95.6458,191.323
95.7049,168.903
95.802,112.623
95.8688,75.0314
95.9147,54.1469
95.9522,40.6683
95.9844,31.5916
96.0184,24.1955
96.0506,18.919
96.0827,14.9851
96.1149,12.0858
96.1462,10.0098
96.1838,8.21328
96.2276,6.76762
96.2776,5.65466
96.336,4.78474
96.3986,4.14749
96.4821,3.56754
96.5655,3.17116
96.7055,2.74693
96.8754,2.47249
97.0453,2.36259
97.1019,2.35445
97.3041,2.43218
97.5063,2.69647
97.6411,3.0154
97.7733,3.4981
97.8834,4.1005
97.9715,4.79032
98.0565,5.73831
98.1321,6.97291
98.195,8.50035
98.2454,10.2977
98.2907,12.6565
98.331,15.6962
98.3675,19.6138
98.4015,24.6866
98.4355,31.6433
98.4694,41.0815
98.4997,52.0878
98.5337,68.0093
98.5721,91.1541
98.6161,124.902
98.6797,185.602
98.7892,297.444
98.8406,334.254
98.8962,350.297
98.8997,350.353
98.9438,341.237
98.9932,311.465
99.0712,236.974
99.1581,147.571
99.2072,105.758
99.2487,77.6717
99.2865,57.9053
99.3211,44.0823
99.3545,34.0178
99.3885,26.3944
99.4225,20.8142
99.4564,16.7508
99.4904,13.784
99.5257,11.5258
99.5697,9.49663
99.6176,7.93949
99.6805,6.50896
99.7561,5.33089
99.8442,4.38024
99.9386,3.66177
100.052,3.04989
100.172,2.59039
100.329,2.16715
100.518,1.8263
100.738,1.56609
100.99,1.3777
101.242,1.26338
101.619,1.18436
101.828,1.17585
101.943,1.17739
102.0,1.17871
102.0,52.3114
121.0,47.2697
140.0,43.3209
167.374,38.951
170.0,38.5318
200.0,34.9006
239.106,31.3989
250.0,30.4234
298.883,27.2353
300.0,27.1624
350.0,24.6586
400.0,22.6628
478.212,20.3114
500.0,19.6563
597.765,17.5268
600.0,17.4781
700.0,15.8134
800.0,14.492
956.424,12.9436
1000.0,12.5123
1195.53,11.1192
1200.0,11.0873
1400.0,10.0047
1673.74,8.8922
1700.0,8.78549
2000.0,7.87764
2391.06,7.02008
2500.0,6.78119
2988.82,6.01846
3000.0,6.00102
3500.0,5.41423
4000.0,4.9551
4782.12,4.42695
5000.0,4.27982
5977.65,3.81517
6000.0,3.80455
7000.0,3.45033
8000.0,3.17526
10000.0,2.77405
10000.0,2.77379
13117.8,2.33481
17160.7,1.96501
21025.5,1.73678
27386.1,1.51157
36632.1,1.31784
52331.8,1.12648
63676.8,1.03302
90000.0,0.912341
134158.0,0.809752
223607.0,0.695193
361348.0,0.574594
461576.0,0.499632
560047.0,0.412194
650000.0,0.351001
824264.0,0.293512
1020460.0,0.243069
1163080.0,0.201652
1386730.0,0.151583
1637590.0,0.109457
1852380.0,0.083417
2081980.0,0.0633331
2262000.0,0.0514534
2470000.0,0.0412295
2695920.0,0.0323784
2933310.0,0.0255775
3210940.0,0.0194801
3447470.0,0.0156744
3716980.0,0.0124285
4019090.0,0.00978389
4347480.0,0.00768183
4699500.0,0.00605453
5000000.0,0.00500001
5464840.0,0.00402526
6000000.0,0.00320001
7000000.0,0.00258341
1.0E7,0.00241321
1.5E7,0.0032508
2.0E7,0.00423279

