77-Ir-191(n,&gamma;) ENDF/B-VII.1
1.0E-5,49072.6
1.31241E-5,42835.4
1.70876E-5,37540.0
2.2426E-5,32768.7
2.91987E-5,28717.7
3.83206E-5,25067.4
4.98935E-5,21968.4
6.54808E-5,19175.9
8.52562E-5,16805.4
1.11891E-4,14669.1
1.45682E-4,12855.3
1.91195E-4,11221.2
2.48937E-4,9833.61
3.26707E-4,8582.89
4.25373E-4,7521.26
5.58264E-4,6564.4
7.26861E-4,5752.31
9.53941E-4,5020.09
0.00124203,4398.17
0.00163006,3837.84
0.00212234,3361.88
0.00278538,2932.89
0.00362657,2569.17
0.00475955,2243.85
0.00619694,1964.11
0.00813293,1710.53
0.0105891,1498.62
0.0138972,1303.25
0.0180942,1138.05
0.0234661,996.589
0.0253,957.452
0.033204,829.871
0.0432317,723.556
0.0567377,628.631
0.0738726,546.803
0.0969512,475.321
0.126231,420.71
0.150913,386.343
0.198059,352.313
0.246016,342.4
0.29412,353.925
0.337251,385.254
0.377411,439.4
0.411788,514.963
0.442163,618.522
0.467574,748.304
0.487544,894.302
0.505704,1079.84
0.522956,1328.03
0.537257,1615.62
0.55065,1988.24
0.563362,2482.46
0.574258,3069.77
0.585154,3880.32
0.594688,4846.75
0.604903,6232.11
0.617025,8398.75
0.636638,12326.0
0.646262,13507.8
0.652219,13699.5
0.659338,13325.1
0.668418,12034.5
0.693751,6921.86
0.704556,5219.47
0.713636,4136.47
0.723624,3245.83
0.733158,2616.8
0.743146,2124.15
0.754269,1716.58
0.767208,1370.52
0.781736,1091.29
0.796718,883.141
0.814878,701.588
0.833719,566.765
0.854376,459.547
0.877984,370.902
0.9025,304.132
0.931102,247.314
0.96606,197.739
0.99784,165.115
1.04142,132.711
1.08592,109.171
1.13676,89.7912
1.19397,74.1789
1.26071,61.0419
1.34288,49.7003
1.43368,40.9883
1.54264,33.7416
1.6743,27.793
1.82412,23.2657
2.0148,19.5108
2.23272,16.8669
2.39616,15.6297
2.61408,14.682
2.82424,14.3716
3.04284,14.6107
3.32702,15.84
3.52376,17.4371
3.75329,20.4195
3.95003,24.4313
4.11398,29.4308
4.26154,36.0607
4.3763,43.433
4.49107,53.9205
4.58397,66.0252
4.67141,82.162
4.74792,102.204
4.80913,124.552
4.86269,151.355
4.91624,188.515
4.96215,233.163
5.00259,287.814
5.04084,360.174
5.07418,449.071
5.10096,547.81
5.12692,679.706
5.15096,851.5
5.172,1063.84
5.18922,1304.72
5.20643,1638.43
5.22092,2025.53
5.2343,2506.43
5.24851,3191.33
5.26327,4144.94
5.27912,5486.71
5.30098,7821.89
5.33027,11033.4
5.34688,12192.9
5.35956,12478.4
5.37399,12098.2
5.39148,10768.0
5.4376,5711.53
5.45454,4237.32
5.4693,3258.08
5.48269,2586.72
5.49608,2080.69
5.51083,1667.0
5.52614,1352.22
5.54308,1097.05
5.5622,887.916
5.58516,708.725
5.60811,580.117
5.63598,467.559
5.66549,382.297
5.69992,311.306
5.73673,257.724
5.77719,216.824
5.81766,189.588
5.85951,173.319
5.8909,169.36
5.92229,174.764
5.94845,190.482
5.96937,215.438
5.98769,251.894
6.00338,299.102
6.01908,365.81
6.03791,475.748
6.0693,715.093
6.09389,886.297
6.1123,950.404
6.11841,954.228
6.13323,925.38
6.15081,830.323
6.20061,441.011
6.21788,335.477
6.23436,259.833
6.24927,209.607
6.26496,171.085
6.28327,139.298
6.3042,114.297
6.32931,93.9541
6.35756,78.4041
6.38582,67.4219
6.42662,56.2703
6.47371,47.43
6.53126,39.939
6.6045,33.3892
6.68821,28.2367
6.80435,23.397
6.92049,20.1232
7.08163,17.1361
7.24904,15.2568
7.45155,14.1442
7.57035,13.9834
7.73733,14.3936
7.90432,15.6861
8.029,17.4694
8.15368,20.3144
8.26278,24.1766
8.35369,28.9811
8.43161,34.9414
8.49759,42.0713
8.55941,51.528
8.61084,62.6319
8.66071,77.8643
8.70123,95.3538
8.7376,117.236
8.76877,143.277
8.79786,177.16
8.8228,217.844
8.84384,265.348
8.86384,327.981
8.88098,402.378
8.89734,500.021
8.91371,635.173
8.92877,805.292
8.94332,1023.36
8.95942,1338.68
8.97813,1808.83
9.03101,3413.82
9.05138,3822.73
9.06758,3931.16
9.0867,3780.02
9.1079,3312.66
9.15943,1746.84
9.17735,1308.06
9.19372,996.313
9.2093,772.004
9.22385,615.344
9.23944,490.967
9.25502,399.67
9.2732,322.36
9.29398,259.722
9.3158,212.995
9.33918,176.832
9.36515,147.64
9.39632,122.585
9.42736,104.837
9.46838,88.7661
9.49915,80.7089
9.54018,74.127
9.5812,71.8904
9.62145,74.4861
9.6525,81.059
9.67895,91.6674
9.70195,106.971
9.72208,127.673
9.73932,153.406
9.75657,189.186
9.77526,242.196
9.79539,317.827
9.83075,486.643
9.8572,608.31
9.87744,668.747
9.89336,684.394
9.9147,656.456
9.93816,571.699
9.9883,328.745
10.009,247.047
10.0274,191.402
10.0458,150.457
10.0631,122.881
10.0832,100.527
10.1047,84.8302
10.124,75.6972
10.1433,69.9739
10.1726,66.4301
10.175,66.3936
10.1967,67.8487
10.2181,72.772
10.2429,83.7402
10.2666,100.543
10.2937,127.672
10.3479,191.755
10.3744,210.779
10.3892,213.416
10.4105,205.945
10.4357,182.364
10.4983,102.073
10.5224,77.8029
10.5435,61.6912
10.5645,49.727
10.5871,40.4426
10.6134,32.838
10.6397,27.511
10.6698,23.1753
10.7063,19.4645
10.7563,15.9921
10.8113,13.4102
10.8835,11.0994
10.9677,9.27256
11.052,7.98226
11.1723,6.6773
11.3115,5.63088
11.4958,4.67082
11.7064,3.91784
11.9697,3.2711
12.2556,2.78643
12.5565,2.42533
12.9176,2.11722
13.399,1.84232
14.0008,1.6361
14.723,1.52274
15.084,1.50954
15.6858,1.55638
16.2344,1.69171
16.6263,1.87167
17.0181,2.16682
17.3447,2.56771
17.6059,3.06964
17.8018,3.63018
17.9884,4.41406
18.1284,5.26622
18.2567,6.38274
18.371,7.81846
18.4713,9.64694
18.5529,11.7825
18.6229,14.3624
18.6817,17.3774
18.732,20.9307
18.7834,26.0179
18.8225,31.4933
18.8552,37.7325
18.8851,45.5318
18.913,55.7468
18.9364,67.7065
18.9588,83.8979
18.9774,102.773
18.9961,128.858
19.0129,160.927
19.0297,203.867
19.0472,263.295
19.0661,347.849
19.0875,472.614
19.1141,667.587
19.1668,1098.57
19.1943,1257.25
19.2197,1309.93
19.2402,1275.37
19.2657,1145.8
19.3068,822.219
19.3404,554.322
19.3637,402.969
19.383,304.771
19.401,234.798
19.419,182.215
19.4346,147.892
19.4509,120.847
19.4705,97.2275
19.4924,78.7696
19.5158,65.2062
19.5438,54.1094
19.5768,45.44
19.6146,39.0623
19.6618,34.3988
19.7166,32.109
19.7336,31.9626
19.7762,32.7454
19.8187,35.4011
19.8506,39.0341
19.8825,44.7567
19.9085,51.809
19.9325,61.2384
19.9564,75.0584
19.9779,93.1878
19.9963,114.742
20.0154,145.343
20.0338,184.542
20.0529,237.764
20.0771,324.749
20.109,469.348
20.1568,698.624
20.1845,789.652
20.2094,818.749
20.2355,787.385
20.2632,694.566
20.3355,351.209
20.3599,256.92
20.3815,192.37
20.4014,147.102
20.4205,114.689
20.4397,90.7964
20.4583,73.7123
20.4806,58.9214
20.5045,47.7695
20.5311,39.0394
20.563,31.7104
20.5971,26.2015
20.6417,21.1356
20.6864,17.5735
20.7369,14.6663
20.7975,12.1702
20.8746,9.95959
20.9676,8.15068
21.0607,6.9084
21.1803,5.81359
21.3238,4.94952
21.5126,4.2473
21.7199,3.80788
21.9273,3.58033
22.1665,3.50142
22.4591,3.6201
22.7516,3.97864
22.993,4.50734
23.1741,5.1124
23.3602,6.03659
23.511,7.17648
23.6368,8.63615
23.7172,10.044
23.7876,11.8829
23.8404,14.0032
23.8832,16.6879
23.9131,19.5712
23.939,23.242
23.9616,27.8435
23.9843,34.3287
24.0069,43.3571
24.0295,55.5693
24.0547,73.3555
24.0874,102.619
24.1447,158.039
24.1759,178.131
24.2006,183.598
24.2241,179.07
24.2503,164.145
24.3006,119.309
24.3368,87.3405
24.3619,69.6798
24.3871,56.5354
24.41,48.205
24.4313,43.0048
24.457,39.2751
24.4826,37.5164
24.4997,37.1329
24.5339,37.7216
24.5852,41.0901
24.6432,48.0099
24.6922,56.9233
24.739,69.1927
24.7806,84.8817
24.8163,104.077
24.8473,127.682
24.8758,158.762
24.8996,195.324
24.9223,243.563
24.9437,306.613
24.9645,390.045
24.9853,501.857
25.0061,648.455
25.0305,870.625
25.0597,1207.35
25.1329,2177.19
25.1614,2434.32
25.1899,2525.83
25.2171,2438.17
25.2471,2168.32
25.3304,1075.21
25.3566,794.467
25.3801,596.6
25.4015,458.582
25.4206,364.928
25.4402,291.495
25.4613,232.769
25.4851,184.956
25.5089,150.666
25.5327,125.521
25.5625,102.583
25.5982,83.0096
25.6351,68.4895
25.6779,56.2077
25.7279,45.8546
25.7826,37.6663
25.8433,31.0721
25.9159,25.3923
25.9992,20.7637
26.0944,17.045
26.2011,14.1576
26.3078,12.1663
26.417,10.8034
26.5313,10.0971
26.5453,10.0827
26.6094,10.429
26.6425,11.0808
26.6756,12.3426
26.7081,14.4888
26.7377,17.4481
26.7727,22.2652
26.8399,33.0272
26.8695,36.3506
26.8995,37.5289
26.9321,35.9455
26.9641,31.9322
27.0413,19.1705
27.0713,15.2399
27.0974,12.6854
27.1255,10.7335
27.155,9.37247
27.1926,8.32634
27.2377,7.63885
27.2928,7.19727
27.413,6.80922
27.5012,6.74208
27.6816,6.90233
27.9092,7.54588
28.0982,8.48284
28.2873,9.91362
28.4526,11.7564
28.5944,14.0041
28.7361,17.2127
28.8542,21.04
28.9555,25.6373
29.05,31.6408
29.1324,38.9921
29.208,48.5275
29.2714,59.8125
29.3281,73.9365
29.3767,90.8562
29.4186,111.087
29.4523,133.391
29.486,164.119
29.5164,203.09
29.5448,254.641
29.5684,314.366
29.5907,390.497
29.6129,492.5
29.6369,639.598
29.6612,837.335
29.6882,1122.22
29.7223,1577.32
29.7938,2654.24
29.8233,2975.64
29.8541,3127.19
29.8595,3130.81
29.8902,3019.36
29.9237,2675.82
30.0163,1309.99
30.0463,955.4
30.0706,731.308
30.0929,572.086
30.1165,444.226
30.1381,356.899
30.1624,284.209
30.1867,231.238
30.213,189.361
30.2434,154.517
30.2799,124.939
30.319,102.459
30.3662,83.2202
30.4189,68.1193
30.4756,56.5739
30.5417,47.081
30.6069,40.5143
30.6812,35.3321
30.774,31.3315
30.8755,29.4873
30.9028,29.4279
30.9772,30.3316
31.0517,33.252
31.11,37.7356
31.1537,43.185
31.1886,49.6813
31.2235,59.3295
31.2518,70.9654
31.2791,87.3283
31.3037,108.671
31.3255,135.23
31.3459,168.887
31.3672,215.376
31.3904,282.245
31.4149,373.982
31.446,521.222
31.5256,962.728
31.5603,1093.75
31.5896,1131.67
31.6144,1103.99
31.6415,1016.62
31.686,787.36
31.7394,488.267
31.7689,353.824
31.7929,267.464
31.8139,208.485
31.836,161.039
31.8551,129.989
31.878,102.223
31.9025,80.9918
31.9271,65.9139
31.9565,53.1969
31.9892,43.4191
32.0285,35.3106
32.07,29.3071
32.1223,23.9508
32.1834,19.5918
32.2554,16.0131
32.3372,13.1729
32.4381,10.7425
32.5527,8.84282
32.6863,7.31153
32.8335,6.1372
33.0244,5.09419
33.2481,4.27813
33.5099,3.65474
33.7717,3.25901
34.1258,2.97291
34.3926,2.91631
34.6424,2.99686
34.8922,3.24834
35.1143,3.694
35.2808,4.26096
35.4196,4.99137
35.5362,5.90278
35.6361,7.03572
35.7194,8.37519
35.7994,10.2013
35.8693,12.5013
35.9293,15.3327
35.9759,18.4284
36.0148,21.9631
36.0536,26.8962
36.0869,32.9402
36.1147,40.0484
36.1425,50.1116
36.1647,61.3132
36.1869,76.4858
36.2091,97.0109
36.2302,122.933
36.2535,160.637
36.2779,212.135
36.3057,286.856
36.3423,409.518
36.41,655.58
36.4462,747.034
36.4799,777.084
36.512,748.837
36.5499,653.358
36.6399,330.629
36.671,238.811
36.6965,179.37
36.7198,137.302
36.7431,105.383
36.7642,83.6764
36.7865,66.5847
36.8087,53.9581
36.8342,43.414
36.862,35.2706
36.8897,29.4153
36.9264,23.908
36.9663,19.6861
37.013,16.1839
37.0685,13.2343
37.1351,10.7605
37.2045,8.94488
37.2878,7.40118
37.3849,6.14824
37.5015,5.12466
37.6347,4.34615
37.8041,3.71916
37.9845,3.3255
38.201,3.09016
38.3454,3.04184
38.6081,3.15343
38.7833,3.38515
38.9585,3.78542
39.1343,4.43834
39.2667,5.19225
39.377,6.09377
39.4818,7.31164
39.5784,8.92938
39.6639,11.0092
39.7301,13.2971
39.7853,15.9249
39.8393,19.5141
39.8823,23.5223
39.9243,29.0632
39.9574,35.3219
39.9872,43.2768
40.0136,53.2167
40.039,66.53
40.0611,82.3777
40.0831,103.607
40.1069,134.243
40.13,173.94
40.1549,229.205
40.1824,307.612
40.22,441.467
40.2972,749.655
40.3365,857.131
40.3697,888.474
40.3982,865.13
40.4296,790.906
40.4759,619.848
40.5349,383.699
40.5689,272.723
40.5962,202.884
40.6199,155.954
40.6431,120.907
40.6662,94.6385
40.6894,75.245
40.7142,60.1704
40.7418,48.342
40.7699,39.9053
40.8047,32.7468
40.8433,27.4373
40.8819,23.8786
40.9187,21.608
40.9555,20.2062
40.9923,19.6342
41.0291,20.04
41.0595,21.3883
41.0899,24.0805
41.1165,28.0145
41.1431,33.9761
41.1679,41.8971
41.1937,53.0567
41.2246,70.7297
41.2646,100.138
41.3371,158.913
41.3695,177.893
41.4035,186.724
41.4094,186.898
41.4424,180.35
41.4809,158.675
41.5807,77.421
41.6131,56.118
41.6379,43.2713
41.6632,33.1255
41.686,26.2186
41.7088,21.0303
41.7321,17.112
41.757,14.0833
41.7818,11.8978
41.8101,10.1039
41.8489,8.42206
41.8897,7.2208
41.9479,6.05897
42.0178,5.13192
42.0988,4.40379
42.2001,3.78671
42.342,3.22695
42.5091,2.81863
42.732,2.50786
42.9583,2.35837
43.129,2.32848
43.3553,2.39704
43.5251,2.54938
43.7082,2.87038
43.8347,3.26413
43.9191,3.67324
43.9975,4.24746
44.0629,4.9957
44.1086,5.80782
44.1434,6.72879
44.1738,7.90746
44.2003,9.40274
44.2269,11.5642
44.2497,14.183
44.2724,17.7727
44.2952,22.6242
44.318,29.0407
44.3441,38.6798
44.3745,53.1925
44.4124,75.9322
44.4858,123.981
44.5202,140.184
44.5553,147.303
44.5602,147.414
44.5937,142.303
44.6325,125.302
44.732,62.3143
44.7651,45.4699
44.7936,34.3792
44.8189,27.0425
44.8442,21.7462
44.8675,18.3274
44.8942,15.7344
44.9209,14.1751
44.9532,13.2519
44.9808,13.0603
45.0084,13.285
45.0525,14.3999
45.0967,16.5332
45.1325,19.3023
45.167,23.3009
45.198,28.5995
45.2256,35.2913
45.2514,43.9128
45.2783,56.0564
45.3042,71.5525
45.3318,92.9461
45.3642,125.024
45.4097,181.323
45.4855,280.587
45.5225,313.345
45.5595,325.269
45.5909,316.707
45.6251,289.655
45.6814,219.769
45.7427,139.055
45.7768,102.46
45.8051,78.3777
45.8317,60.735
45.8565,48.0533
45.8806,38.6426
45.9048,31.5122
45.9303,25.8655
45.9613,20.8918
45.9923,17.3496
46.033,14.0978
46.0813,11.4866
46.1295,9.67606
46.1943,7.98531
46.2605,6.79092
46.3433,5.75417
46.4426,4.91615
46.546,4.32937
46.6839,3.82217
46.8563,3.45385
46.9942,3.29146
47.2424,3.18696
47.4983,3.25558
47.8395,3.56471
48.1637,4.10136
48.4504,4.82748
48.6893,5.68737
48.9355,6.93972
49.1509,8.50903
49.3355,10.4035
49.5114,12.95
49.6564,15.9081
49.7795,19.3635
49.8991,24.0021
49.9975,29.2867
50.089,36.0488
50.1751,44.9878
50.2455,55.1956
50.307,67.5129
50.3597,81.9966
50.4125,102.268
50.4547,125.163
50.4899,151.394
50.5268,189.672
50.5576,233.96
50.5883,294.346
50.6191,376.642
50.6499,487.481
50.6798,628.617
50.7149,842.466
50.758,1173.41
50.857,2032.77
50.9006,2288.9
50.9396,2369.05
50.9759,2299.42
51.0174,2068.09
51.093,1422.09
51.1484,958.448
51.187,700.114
51.2187,535.784
51.2473,421.003
51.2763,332.04
51.3053,265.301
51.3383,209.796
51.369,172.12
51.406,139.311
51.4446,114.673
51.4886,94.4859
51.5414,77.2168
51.6011,63.392
51.675,51.5461
51.7503,43.2537
51.8404,36.6047
51.9081,33.3105
51.9982,30.7277
52.0884,30.1559
52.1633,31.6089
52.2258,34.9714
52.2632,38.6121
52.2969,43.6353
52.3317,51.5995
52.3621,62.1803
52.3881,75.2294
52.4142,93.3968
52.437,114.786
52.4614,144.819
52.4859,183.595
52.5152,243.158
52.551,335.758
52.6195,554.082
52.6748,716.724
52.7139,784.714
52.7394,798.043
52.7748,772.721
52.816,686.392
52.8882,458.093
52.9355,312.855
52.9681,231.105
52.9974,172.929
53.024,132.174
53.049,102.98
53.0734,81.4105
53.0951,66.8605
53.1223,53.3416
53.1483,43.9578
53.1809,35.6304
53.2135,29.8017
53.2472,25.4507
53.2987,20.7802
53.3606,17.0071
53.4323,14.0198
53.5138,11.655
53.6088,9.71309
53.7228,8.07726
53.8369,6.90527
54.0025,5.70202
54.1817,4.80569
54.3907,4.07852
54.6284,3.51546
54.8661,3.14358
55.1514,2.89389
55.3383,2.84873
55.5386,2.9367
55.6887,3.14469
55.8189,3.49351
55.939,4.0647
56.0191,4.685
56.0912,5.54015
56.1446,6.48909
56.1874,7.57986
56.2301,9.16641
56.2635,10.9635
56.2968,13.5291
56.3269,16.8089
56.3529,20.692
56.3796,26.0015
56.409,33.8056
56.4407,45.0279
56.4737,60.1984
56.5171,85.3602
56.6186,151.886
56.6594,169.953
56.6997,176.356
56.7342,171.587
56.7721,156.454
56.8282,121.801
56.8989,75.019
56.935,55.5049
56.967,41.7104
56.995,32.3183
57.0204,25.7245
57.0471,20.4134
57.0738,16.435
57.1045,13.1015
57.1379,10.5506
57.1713,8.75438
57.21,7.28239
57.2567,6.04863
57.3128,5.03135
57.3742,4.25634
57.4576,3.53239
57.5577,2.95221
57.6679,2.52189
57.8181,2.13375
57.9683,1.87778
58.1819,1.64101
58.4622,1.45583
58.836,1.32606
59.2365,1.27313
59.37,1.27022
59.7934,1.30524
60.2169,1.41564
60.5923,1.60267
60.9052,1.86355
61.1555,2.18965
61.3589,2.58578
61.5278,3.06642
61.6874,3.73276
61.8188,4.54326
61.9314,5.55843
62.019,6.68775
62.0941,8.04325
62.1567,9.61302
62.2162,11.7142
62.2631,14.0706
62.3006,16.6855
62.3382,20.3428
62.3695,24.6214
62.4007,30.5882
62.4295,38.2228
62.4546,47.1524
62.4796,58.8591
62.5084,76.6428
62.539,101.776
62.5728,138.005
62.6135,193.897
62.7374,399.44
62.782,447.785
62.8197,461.729
62.8636,443.037
62.9126,384.144
63.0296,188.974
63.0697,135.175
63.1035,99.8917
63.1341,75.5081
63.1635,57.9845
63.1917,45.5609
63.2199,36.4331
63.248,29.7685
63.278,24.6181
63.3131,20.3705
63.3569,16.7764
63.4007,14.352
63.4608,12.139
63.5208,10.6975
63.6009,9.50082
63.681,8.84775
63.7711,8.57878
63.8743,8.77947
63.9776,9.54188
64.055,10.5785
64.1324,12.192
64.205,14.5407
64.2578,17.0978
64.2999,20.0237
64.3421,24.2586
64.3737,28.809
64.4019,34.3597
64.4335,43.0682
64.4616,53.8875
64.4862,66.5547
64.5152,86.429
64.5442,112.922
64.5761,151.151
64.6104,203.717
64.6578,294.762
64.7486,487.122
64.7889,549.559
64.8306,579.754
64.84,580.857
64.8817,560.016
64.9267,496.496
65.0509,242.176
65.0904,177.053
65.1212,137.615
65.1493,109.976
65.1774,89.5925
65.2055,75.4956
65.2336,66.7768
65.2617,62.7715
65.2711,62.4187
65.2977,64.0694
65.3235,69.6008
65.3494,79.4504
65.3752,94.2809
65.4053,118.921
65.4369,154.395
65.4695,202.248
65.5135,283.617
65.613,490.239
65.6548,550.619
65.6978,574.303
65.6997,574.322
65.736,557.694
65.7766,504.81
65.8367,384.577
65.9072,235.879
65.9445,171.6
65.9776,126.39
66.0061,96.3129
66.0346,73.3897
66.0605,57.7192
66.0884,45.1729
66.1174,35.8025
66.1464,29.1156
66.1754,24.3106
66.2127,19.978
66.249,17.0459
66.3008,14.1611
66.3629,11.8609
66.4251,10.2852
66.5079,8.85405
66.6115,7.73208
66.7378,7.00402
66.868,6.7865
66.9913,7.03856
67.1146,7.82998
67.2119,9.01546
67.2872,10.4831
67.3474,12.2245
67.4001,14.4376
67.4458,17.2398
67.486,20.8648
67.5181,25.05
67.5502,31.0325
67.5783,38.4558
67.6054,48.3729
67.6325,61.9811
67.6596,80.4389
67.6852,103.468
67.7124,134.96
67.742,178.866
67.7771,244.494
67.8298,366.647
67.9117,566.198
67.9526,636.443
67.9969,667.014
67.9995,667.116
68.0349,649.639
68.0743,592.714
68.1365,450.486
68.2058,280.083
68.245,200.523
68.2781,147.147
68.3082,109.622
68.3358,83.4034
68.3624,64.3282
68.3895,49.8879
68.4167,39.3214
68.4438,31.6274
68.4744,25.398
68.506,20.8441
68.5412,17.2523
68.5823,14.2835
68.6325,11.7507
68.6928,9.63046
68.7605,7.94708
68.8484,6.419
68.9413,5.29011
69.0467,4.37897
69.1697,3.62536
69.3052,3.03584
69.4809,2.50147
69.6867,2.0745
69.9277,1.73677
70.1686,1.50477
70.5301,1.27448
70.9518,1.1117
71.3734,1.01638
72.0067,0.954796
72.2178,0.951399
72.8068,0.983234
73.3958,1.08325
73.867,1.23352
74.2793,1.44974
74.621,1.73259
74.8566,2.02202
75.0922,2.44343
75.2777,2.9333
75.4367,3.54514
75.5693,4.28448
75.6753,5.12688
75.7636,6.10763
75.8461,7.39804
75.9168,8.98952
75.9757,10.9141
76.0228,13.1397
76.067,16.1833
76.1023,19.71
76.1359,24.4628
76.1677,30.8185
76.1959,38.5836
76.2242,49.0003
76.2513,62.1376
76.2796,79.8526
76.3126,106.547
76.3491,144.368
76.3962,205.347
76.5058,364.179
76.5538,411.779
76.5999,428.081
76.6452,412.123
76.6942,363.715
76.8262,175.098
76.8674,126.815
76.9027,94.1952
76.9346,71.5562
76.9611,56.9881
76.9911,44.4199
77.0194,35.6613
77.0476,29.1898
77.0759,24.4316
77.1104,20.2922
77.151,16.9878
77.1984,14.4756
77.2526,12.6469
77.3068,11.4774
77.3777,10.5557
77.4487,10.0934
77.496,9.97631
77.5886,10.1131
77.6813,10.6992
77.7971,12.1199
77.894,14.0763
77.9764,16.5492
78.045,19.4762
78.1171,23.9001
78.1686,28.4241
78.22,34.8285
78.2647,42.8248
78.3058,53.4036
78.3402,65.7236
78.3728,81.5947
78.4028,100.99
78.4328,126.21
78.4654,161.643
78.504,216.286
78.5461,292.678
78.6044,424.462
78.6953,643.394
78.7478,732.986
78.7948,765.035
78.7996,765.328
78.8439,741.587
78.8927,666.635
78.975,474.261
79.0449,310.729
79.0913,223.904
79.1282,170.002
79.1612,132.551
79.1946,103.585
79.2247,83.8832
79.2607,66.3407
79.2967,53.7415
79.3353,44.0992
79.3782,36.5523
79.4314,30.1625
79.4863,25.7182
79.555,22.0607
79.6236,19.7918
79.698,18.4779
79.7539,18.1802
79.8222,18.6803
79.8843,20.2404
79.9341,22.6972
79.9714,25.6931
80.0091,30.3183
80.0422,36.3313
80.0752,45.0033
80.1035,55.3255
80.133,69.7782
80.1649,90.6808
80.1967,118.141
80.2342,159.83
80.2805,225.301
80.4009,424.744
80.4486,480.801
80.4975,503.153
80.4996,503.19
80.542,487.484
80.5873,439.787
80.6605,322.417
80.7322,204.007
80.7755,146.012
80.8086,111.032
80.8416,83.7791
80.8711,65.2157
80.8977,52.4061
80.9277,41.479
80.9567,33.7716
80.9897,27.4351
81.0227,22.9788
81.0604,19.4585
81.0991,17.0023
81.1508,14.9242
81.2024,13.8126
81.254,13.5509
81.296,14.0791
81.338,15.5456
81.3716,17.6893
81.4052,21.0411
81.4378,25.8146
81.4708,32.6116
81.5039,41.7437
81.5406,54.9101
81.5874,76.0747
81.6992,134.395
81.7475,152.45
81.7963,159.638
81.7994,159.656
81.842,154.552
81.884,140.716
81.9481,108.838
82.0268,67.0045
82.0693,48.4775
82.1056,35.9929
82.137,27.5681
82.1685,21.1471
82.2001,16.3884
82.2284,13.23
82.2578,10.8127
82.2872,9.0446
82.3208,7.589
82.3649,6.28304
82.4059,5.45344
82.4604,4.681
82.5424,3.91194
82.6505,3.25776
82.7686,2.78422
82.934,2.34426
83.1309,2.00463
83.3278,1.7772
83.564,1.59282
83.879,1.44284
84.194,1.36903
84.404,1.35468
84.7395,1.38898
85.075,1.50706
85.3787,1.71864
85.6185,1.99857
85.8183,2.35632
85.9839,2.79084
86.1438,3.40463
86.2808,4.18002
86.3893,5.06084
86.4893,6.21128
86.5778,7.67297
86.6463,9.27466
86.7034,11.1269
86.7576,13.616
86.8005,16.4195
86.839,19.9797
86.8724,24.2969
86.9067,30.5085
86.9375,38.321
86.9672,48.6048
86.9957,61.8757
87.0243,79.3682
87.0528,102.019
87.0848,134.581
87.1214,182.148
87.167,257.205
87.2949,508.595
87.3452,580.143
87.3936,609.017
87.3999,609.387
87.4439,589.974
87.4891,534.047
87.5644,391.733
87.637,249.223
87.6786,181.629
87.7152,134.252
87.7489,100.294
87.7803,76.1169
87.8088,59.4004
87.8374,46.7364
87.8682,36.6063
87.8991,29.237
87.9299,23.8659
87.9639,19.5719
87.9978,16.4454
88.0464,13.2821
88.0966,11.0048
88.1537,9.14902
88.2222,7.54441
88.3107,6.07913
88.4107,4.92391
88.5163,4.05658
88.6362,3.34914
88.7761,2.76029
88.9417,2.26988
89.1301,1.88026
89.3642,1.54857
89.6383,1.28975
89.9581,1.09208
90.3464,0.940647
90.7917,0.83787
91.2371,0.781563
91.8766,0.755604
92.4679,0.777551
93.0592,0.8432
93.6268,0.958902
94.1235,1.12206
94.5427,1.33173
94.891,1.58711
95.2006,1.9136
95.4715,2.32299
95.7037,2.8216
95.923,3.49451
96.1036,4.2884
96.252,5.20254
96.3874,6.3642
96.5132,7.88778
96.6099,9.52186
96.7067,11.8025
96.7886,14.5555
96.8544,17.6801
96.9073,21.1747
96.9524,25.2873
96.9976,31.0786
97.0382,38.5681
97.0737,47.8128
97.1085,60.4809
97.1395,75.8827
97.1717,97.4579
97.2027,124.949
97.2336,160.586
97.2672,209.959
97.3078,286.391
97.3568,402.621
97.4916,777.422
97.5432,879.214
97.5944,920.707
97.5995,921.087
97.6495,888.281
97.7058,782.301
97.858,364.372
97.9044,261.355
97.9431,193.827
97.978,146.764
98.007,116.307
98.0386,90.7467
98.0708,71.2577
98.1031,56.905
98.1386,45.4986
98.1702,38.1246
98.2063,31.9478
98.2514,26.5027
98.3024,22.2873
98.3611,18.9759
98.4282,16.4312
98.4953,14.7462
98.5707,13.5848
98.665,13.0278
98.6755,13.0258
98.7322,13.2459
98.8036,14.2179
98.8572,15.7264
98.9018,17.8375
98.9465,21.2238
98.9822,25.3636
99.0179,31.3984
99.0491,38.8402
99.0804,48.9631
99.1116,62.4813
99.1418,79.4124
99.1752,103.411
99.2143,138.914
99.2651,196.715
99.3884,358.324
99.4473,412.484
99.4995,429.378
99.5491,414.075
99.6071,362.272
99.7528,173.437
99.7996,123.655
99.837,92.2301
99.8705,70.1993
99.9029,53.7895
99.933,42.1539
99.9631,33.3622
99.9933,26.8004
100.026,21.5156
100.064,17.3398
100.101,14.4132
100.148,11.8266
100.198,10.0129
100.267,8.27372
100.351,6.89803
100.443,5.87695
100.569,4.95465
100.694,4.35463
100.856,3.86741
101.04,3.56173
101.286,3.42924
101.539,3.55809
101.793,3.97269
101.99,4.56134
102.158,5.34392
102.297,6.30821
102.424,7.58209
102.533,9.15222
102.626,11.0812
102.706,13.4872
102.768,16.1313
102.818,19.0887
102.865,22.9854
102.902,27.3393
102.939,33.3749
102.976,41.8933
103.01,52.8291
103.041,66.3244
103.072,84.2354
103.103,107.669
103.138,141.842
103.173,185.666
103.217,257.285
103.277,377.181
103.391,627.417
103.441,705.508
103.496,739.764
103.5,739.904
103.543,720.899
103.592,658.274
103.669,501.517
103.754,313.905
103.801,228.575
103.84,172.141
103.876,132.247
103.909,103.276
103.943,81.5858
103.976,65.7945
104.01,54.5787
104.043,46.8916
104.077,41.8734
104.111,38.915
104.155,37.5599
104.2,38.9534
104.235,42.1273
104.276,48.7877
104.31,57.8748
104.345,71.1547
104.38,90.0847
104.413,114.204
104.45,149.64
104.488,197.039
104.536,274.857
104.616,432.831
104.693,581.923
104.742,650.594
104.796,680.263
104.799,680.35
104.854,653.166
104.902,587.764
104.993,408.948
105.064,270.643
105.11,194.89
105.15,144.348
105.187,108.261
105.22,83.0322
105.251,65.2417
105.284,51.1153
105.317,40.7337
105.352,32.7264
105.387,27.0121
105.428,22.2657
105.474,18.501
105.532,15.3196
105.587,13.237
105.661,11.3639
105.717,10.453
105.791,9.85188
105.809,9.82959
105.869,10.239
105.909,11.1125
105.946,12.4985
105.983,14.6467
106.02,17.7666
106.057,22.0589
106.1,28.7354
106.15,38.7972
106.29,72.4204
106.343,81.4095
106.397,84.8821
106.4,84.8821
106.445,82.3835
106.504,72.8359
106.607,47.3839
106.67,32.4834
106.715,23.8419
106.756,17.7717
106.792,13.5557
106.825,10.7207
106.858,8.59062
106.895,6.84225
106.929,5.68689
106.971,4.72047
107.012,4.06002
107.067,3.46923
107.141,2.96364
107.233,2.55308
107.371,2.1493
107.534,1.83108
107.749,1.54728
108.035,1.29277
108.342,1.10631
108.751,0.936652
109.18,0.817587
109.67,0.728882
110.161,0.676555
110.738,0.654842
111.216,0.671969
111.694,0.732964
112.019,0.815041
112.291,0.925263
112.562,1.09971
112.771,1.30875
112.951,1.57759
113.097,1.90216
113.23,2.3353
113.325,2.7783
113.412,3.3443
113.48,3.9606
113.548,4.83852
113.605,5.93208
113.648,7.14466
113.686,8.64251
113.724,10.7643
113.76,13.582
113.792,17.0585
113.824,21.7575
113.854,27.674
113.886,36.0699
113.919,46.969
113.955,62.3039
113.999,86.3391
114.051,122.376
114.184,225.73
114.239,256.503
114.294,269.047
114.3,269.166
114.348,261.103
114.404,233.253
114.493,166.274
114.573,105.004
114.617,77.0511
114.655,57.8279
114.692,43.177
114.725,33.2058
114.757,25.5837
114.787,20.3706
114.817,16.2111
114.848,13.1189
114.885,10.5088
114.921,8.6624
114.965,7.08727
115.006,6.08806
115.06,5.16031
115.128,4.38865
115.213,3.76751
115.302,3.36532
115.391,3.13026
115.525,3.01131
115.638,3.10884
115.751,3.4182
115.836,3.84821
115.906,4.41533
115.963,5.09707
116.011,5.94333
116.056,7.10723
116.095,8.58816
116.129,10.3742
116.166,13.037
116.197,16.2497
116.229,20.5584
116.26,26.2652
116.295,34.6056
116.329,45.0863
116.369,60.7115
116.414,83.2487
116.479,122.745
116.587,192.525
116.639,215.914
116.695,226.263
116.7,226.323
116.753,218.112
116.813,192.119
116.973,89.8782
117.021,65.0042
117.062,48.0097
117.095,36.8522
117.129,28.1477
117.164,21.4334
117.196,16.8097
117.227,13.3438
117.259,10.7656
117.292,8.76353
117.324,7.3572
117.36,6.16678
117.405,5.10148
117.451,4.32347
117.508,3.63915
117.579,3.02961
117.666,2.49669
117.768,2.06114
117.886,1.70296
118.022,1.41451
118.2,1.15366
118.406,0.949986
118.644,0.791728
118.881,0.682407
119.209,0.579537
119.581,0.503117
119.954,0.452849
120.531,0.405746
121.107,0.382462
121.627,0.375808
122.29,0.384203
122.953,0.412339
123.627,0.468756
124.133,0.540201
124.513,0.621488
124.881,0.739667
125.145,0.863857
125.385,1.0261
125.59,1.22815
125.756,1.46408
125.904,1.76844
126.03,2.15433
126.125,2.58051
126.204,3.10352
126.267,3.72987
126.315,4.41927
126.357,5.29677
126.394,6.37989
126.431,7.89673
126.464,9.76502
126.499,12.5243
126.531,15.8185
126.567,20.7222
126.604,27.4887
126.642,36.4147
126.688,50.3223
126.747,72.5027
126.874,126.002
126.939,145.755
126.994,152.413
127.0,152.488
127.051,148.033
127.112,131.864
127.21,92.2032
127.285,62.1075
127.337,45.2557
127.379,34.7775
127.414,28.3112
127.444,24.2524
127.474,21.4644
127.504,19.8641
127.532,19.3955
127.566,20.1365
127.601,22.4342
127.635,26.443
127.671,32.7066
127.709,41.8094
127.75,55.1789
127.797,74.6853
127.863,109.22
127.979,174.482
128.042,198.574
128.1,206.469
128.151,200.178
128.208,180.053
128.3,129.696
128.384,82.8401
128.432,60.6645
128.477,44.619
128.514,34.0115
128.552,25.9388
128.586,20.4805
128.621,16.3199
128.652,13.6061
128.691,11.1941
128.73,9.57237
128.769,8.49964
128.816,7.70233
128.869,7.22635
128.926,7.06267
128.983,7.17272
129.059,7.73312
129.115,8.54134
129.172,9.85649
129.221,11.635
129.265,14.0453
129.303,17.1217
129.336,20.7882
129.368,25.7485
129.402,32.6054
129.437,42.0194
129.471,54.425
129.507,70.9911
129.547,94.8942
129.595,131.254
129.664,195.865
129.776,307.231
129.838,350.791
129.895,366.515
129.9,366.606
129.954,354.131
130.015,314.418
130.118,212.782
130.196,138.419
130.247,98.1679
130.291,71.6106
130.326,55.254
130.36,42.4909
130.392,33.3265
130.424,26.3283
130.457,21.0487
130.489,17.0946
130.525,13.8257
130.567,11.1291
130.61,9.24237
130.658,7.72218
130.711,6.54415
130.783,5.42676
130.869,4.50824
130.981,3.70107
131.096,3.13954
131.234,2.68039
131.412,2.30059
131.632,2.03368
131.896,1.90339
131.984,1.89639
132.178,1.94126
132.421,2.12522
132.615,2.40664
132.784,2.79995
132.928,3.30375
133.048,3.91232
133.159,4.72054
133.249,5.65664
133.324,6.75542
133.394,8.2338
133.445,9.77276
133.496,11.9739
133.537,14.4919
133.572,17.5002
133.61,21.9276
133.644,27.3193
133.677,34.5524
133.71,43.9711
133.746,57.5379
133.782,75.2801
133.821,99.5746
133.864,134.181
133.92,190.116
134.07,368.22
134.135,423.285
134.195,443.285
134.2,443.405
134.257,427.619
134.32,377.473
134.44,236.19
134.508,160.01
134.557,116.174
134.596,88.1144
134.632,67.5922
134.668,51.652
134.702,40.2688
134.738,31.0998
134.774,24.3697
134.811,19.2606
134.849,15.5979
134.892,12.6354
134.936,10.5462
134.99,8.68799
135.058,7.13517
135.133,5.95178
135.229,4.90954
135.334,4.12846
135.46,3.49137
135.608,3.00395
135.802,2.64104
135.995,2.49435
136.06,2.4871
136.236,2.57809
136.353,2.74607
136.499,3.12983
136.607,3.6029
136.704,4.27846
136.773,4.99792
136.831,5.90507
136.886,7.16576
136.93,8.70287
136.969,10.6324
137.003,12.9179
137.036,16.0089
137.07,20.1718
137.103,25.7245
137.137,33.0242
137.17,42.4428
137.209,56.5679
137.252,76.1635
137.305,107.367
137.399,174.554
137.488,236.114
137.547,262.555
137.6,270.628
137.66,259.857
137.721,230.42
137.841,144.145
137.909,97.9217
137.959,70.3159
138.003,51.5377
138.04,39.195
138.077,29.7019
138.112,22.8612
138.147,17.7585
138.182,14.002
138.217,11.2562
138.253,9.22303
138.292,7.61696
138.337,6.31705
138.392,5.20065
138.454,4.36185
138.537,3.58485
138.638,2.95969
138.755,2.46594
138.895,2.06924
139.062,1.75414
139.229,1.54488
139.453,1.36627
139.676,1.26165
140.011,1.19669
140.082,1.19425
140.455,1.24115
140.703,1.33306
140.952,1.48981
141.203,1.74684
141.393,2.04863
141.551,2.41773
141.693,2.90043
141.804,3.43658
141.915,4.20902
142.001,5.08192
142.064,6.00055
142.127,7.32369
142.175,8.76011
142.221,10.7534
142.262,13.2366
142.297,16.2263
142.333,20.2667
142.368,25.7025
142.406,33.5376
142.444,43.9908
142.48,56.8442
142.52,74.8439
142.57,103.44
142.637,150.991
142.773,258.399
142.84,293.958
142.9,305.014
142.956,295.189
143.022,261.417
143.132,176.014
143.209,117.191
143.264,83.5072
143.308,61.9209
143.35,46.1768
143.388,35.2764
143.426,27.0756
143.464,21.0244
143.498,17.0296
143.534,13.8677
143.576,11.217
143.624,9.12427
143.676,7.58635
143.739,6.3208
143.818,5.27538
143.913,4.45171
144.008,3.89551
144.135,3.40113
144.293,3.02574
144.483,2.79245
144.673,2.71372
144.89,2.76295
145.161,3.00631
145.432,3.46758
145.666,4.10273
145.887,4.99986
146.066,6.06348
146.224,7.37555
146.359,8.93774
146.494,11.1349
146.602,13.6177
146.705,16.956
146.78,20.4108
146.856,25.2821
146.915,30.7489
146.969,37.7677
147.018,46.686
147.061,57.6956
147.102,72.1153
147.143,91.211
147.183,116.79
147.223,149.707
147.267,197.521
147.316,266.583
147.371,363.893
147.455,550.879
147.567,805.43
147.636,913.627
147.699,948.98
147.755,922.432
147.819,831.546
147.918,613.94
148.015,392.083
148.076,278.305
148.125,207.305
148.171,155.501
148.211,120.592
148.252,94.0698
148.294,73.4734
148.33,60.3518
148.375,48.1736
148.42,39.3764
148.474,31.8377
148.528,26.462
148.593,21.8128
148.674,17.7
148.771,14.2494
148.87,11.7422
148.996,9.45529
149.14,7.61756
149.298,6.20035
149.477,5.06083
149.662,4.23858
149.865,3.60778
150.067,3.18246
150.326,2.87886
150.504,2.83027
150.677,2.95253
150.806,3.22227
150.893,3.55545
150.958,3.95193
151.022,4.57524
151.076,5.4
151.12,6.39399
151.163,7.85075
151.2,9.64739
151.234,11.8908
151.268,14.8893
151.302,18.843
151.341,24.806
151.383,33.3481
151.428,45.3097
151.479,62.0446
151.553,92.5988
151.666,141.304
151.733,161.709
151.796,169.097
151.8,169.123
151.858,163.306
151.917,147.252
152.015,106.184
152.105,67.9792
152.159,48.8771
152.206,35.522
152.245,26.9823
152.284,20.3735
152.32,15.7326
152.356,12.241
152.392,9.66143
152.427,7.78661
152.462,6.50724
152.502,5.46095
152.542,4.81316
152.583,4.48784
152.61,4.43187
152.65,4.58369
152.692,5.04944
152.73,5.76019
152.777,7.06502
152.825,8.84968
152.881,11.5981
152.975,17.2194
153.117,26.1275
153.204,30.3612
153.292,33.1432
153.409,34.9682
153.935,35.7235
500.0,22.2425
750.0,16.7067
1000.0,13.5897
2500.0,6.9311
2998.6,6.35498
3001.15,6.08546
4000.0,4.88326
5122.21,4.2372
6000.0,3.50632
8391.06,2.98807
10488.8,2.43621
12000.0,2.1031
18000.0,1.62103
25000.0,1.32301
33750.0,1.0905
35000.0,1.06101
49399.4,0.900645
55000.0,0.848008
74532.1,0.749078
80000.0,0.717007
104888.0,0.653891
120000.0,0.601003
180000.0,0.470002
210000.0,0.429003
300000.0,0.388998
362500.0,0.3255
400000.0,0.297003
450000.0,0.290998
500000.0,0.261001
575000.0,0.2415
600000.0,0.236998
650000.0,0.211002
750000.0,0.203999
850000.0,0.182001
900000.0,0.180999
1000000.0,0.159001
1100000.0,0.155999
1200000.0,0.137002
1400000.0,0.144998
1500000.0,0.130002
1600000.0,0.135999
1700000.0,0.124001
1800000.0,0.120001
1900000.0,0.125
2000000.0,0.126999
2125000.0,0.1202
2561100.0,0.090476
3000000.0,0.0666002
3500000.0,0.0461002
4097760.0,0.0323154
5000000.0,0.0140002
6000000.0,0.00520012
8000000.0,0.00184003
1.0E7,0.00166001
1.25E7,0.00209
1.3E7,0.00215999
1.4125E7,0.0018325
1.5375E7,0.00137625
1.6E7,0.00117
1.8E7,7.60003E-4
2.0E7,5.40003E-4

